File: KDE_X.csv
A,B,X,Thickness,Bandgap,Voc,Jsc,FF,PCE
-2.88983,-2.90367,-1.12838,-0.10292,1.07321,-0.135081,-3.44527,-0.0653552,-3.89865
-2.83576,-2.86239,-1.08611,-0.0909716,1.08832,-0.112707,-3.07065,-0.0134888,-3.57083
-2.78169,-2.82111,-1.04383,-0.0790229,1.10343,-0.0903339,-2.69603,0.0383777,-3.24302
-2.72763,-2.77983,-1.00155,-0.0670743,1.11854,-0.0679604,-2.32142,0.0902441,-2.9152
-2.67356,-2.73855,-0.959268,-0.0551256,1.13366,-0.0455869,-1.9468,0.142111,-2.58739
-2.61949,-2.69727,-0.916989,-0.043177,1.14877,-0.0232134,-1.57218,0.193977,-2.25958
-2.56543,-2.65599,-0.87471,-0.0312283,1.16388,-0.000839938,-1.19756,0.245843,-1.93176
-2.51136,-2.61471,-0.832431,-0.0192797,1.17899,0.0215335,-0.822941,0.29771,-1.60395
-2.45729,-2.57343,-0.790152,-0.00733103,1.1941,0.043907,-0.448323,0.349576,-1.27613
-2.40323,-2.53215,-0.747873,0.00461761,1.20921,0.0662805,-0.0737041,0.401443,-0.948319
-2.34916,-2.49087,-0.705594,0.0165663,1.22432,0.088654,0.300914,0.453309,-0.620504
-2.29509,-2.44959,-0.663315,0.0285149,1.23943,0.111027,0.675533,0.505176,-0.29269
-2.24103,-2.40831,-0.621036,0.0404636,1.25455,0.133401,1.05015,0.557042,0.0351241
-2.18696,-2.36703,-0.578756,0.0524122,1.26966,0.155774,1.42477,0.608908,0.362938
-2.13289,-2.32575,-0.536477,0.0643609,1.28477,0.178148,1.79939,0.660775,0.690753
-2.07883,-2.28447,-0.494198,0.0763095,1.29988,0.200521,2.17401,0.712641,1.01857
-2.02476,-2.24319,-0.451919,0.0882581,1.31499,0.222895,2.54863,0.764508,1.34638
-1.97069,-2.20191,-0.40964,0.100207,1.3301,0.245268,2.92324,0.816374,1.6742
-1.91662,-2.16063,-0.367361,0.112155,1.34521,0.267642,3.29786,0.868241,2.00201
-1.86256,-2.11935,-0.325082,0.124104,1.36033,0.290015,3.67248,0.920107,2.32982
-1.80849,-2.07807,-0.282803,0.136053,1.37544,0.312389,4.0471,0.971974,2.65764
-1.75442,-2.03679,-0.240524,0.148001,1.39055,0.334762,4.42172,1.02384,2.98545
-1.70036,-1.99551,-0.198245,0.15995,1.40566,0.357136,4.79634,1.07571,3.31327
-1.64629,-1.95423,-0.155966,0.171899,1.42077,0.379509,5.17095,1.12757,3.64108
-1.59222,-1.91295,-0.113687,0.183847,1.43588,0.401883,5.54557,1.17944,3.9689
-1.53816,-1.87167,-0.0714074,0.195796,1.45099,0.424256,5.92019,1.23131,4.29671
-1.48409,-1.83039,-0.0291283,0.207745,1.46611,0.44663,6.29481,1.28317,4.62452
-1.43002,-1.78911,0.0131507,0.219693,1.48122,0.469003,6.66943,1.33504,4.95234
-1.37596,-1.74783,0.0554298,0.231642,1.49633,0.491377,7.04405,1.38691,5.28015
-1.32189,-1.70655,0.0977089,0.243591,1.51144,0.51375,7.41867,1.43877,5.60797
-1.26782,-1.66527,0.139988,0.255539,1.52655,0.536124,7.79328,1.49064,5.93578
-1.21375,-1.62399,0.182267,0.267488,1.54166,0.558497,8.1679,1.5425,6.2636
-1.15969,-1.58271,0.224546,0.279437,1.55677,0.580871,8.54252,1.59437,6.59141
-1.10562,-1.54144,0.266825,0.291385,1.57188,0.603244,8.91714,1.64624,6.91922
-1.05155,-1.50016,0.309104,0.303334,1.587,0.625618,9.29176,1.6981,7.24704
-0.997487,-1.45888,0.351383,0.315282,1.60211,0.647991,9.66638,1.74997,7.57485
-0.94342,-1.4176,0.393663,0.327231,1.61722,0.670365,10.041,1.80184,7.90267
-0.889353,-1.37632,0.435942,0.33918,1.63233,0.692738,10.4156,1.8537,8.23048
-0.835286,-1.33504,0.478221,0.351128,1.64744,0.715112,10.7902,1.90557,8.55829
-0.781219,-1.29376,0.5205,0.363077,1.66255,0.737485,11.1649,1.95744,8.88611
-0.727152,-1.25248,0.562779,0.375026,1.67766,0.759859,11.5395,2.0093,9.21392
-0.673085,-1.2112,0.605058,0.386974,1.69278,0.782232,11.9141,2.06117,9.54174
-0.619019,-1.16992,0.647337,0.398923,1.70789,0.804605,12.2887,2.11304,9.86955
-0.564952,-1.12864,0.689616,0.410872,1.723,0.826979,12.6633,2.1649,10.1974
-0.510885,-1.08736,0.731895,0.42282,1.73811,0.849352,13.0379,2.21677,10.5252
-0.456818,-1.04608,0.774174,0.434769,1.75322,0.871726,13.4126,2.26863,10.853
-0.402751,-1.0048,0.816453,0.446718,1.76833,0.894099,13.7872,2.3205,11.1808
-0.348684,-0.963519,0.858733,0.458666,1.78344,0.916473,14.1618,2.37237,11.5086
-0.294617,-0.92224,0.901012,0.470615,1.79856,0.938846,14.5364,2.42423,11.8364
-0.24055,-0.88096,0.943291,0.482564,1.81367,0.96122,14.911,2.4761,12.1643
-0.186483,-0.83968,0.98557,0.494512,1.82878,0.983593,15.2857,2.52797,12.4921
-0.132416,-0.7984,1.02785,0.506461,1.84389,1.00597,15.6603,2.57983,12.8199
-0.0783495,-0.757121,1.07013,0.518409,1.859,1.02834,16.0349,2.6317,13.1477
-0.0242825,-0.715841,1.11241,0.530358,1.87411,1.05071,16.4095,2.68357,13.4755
0.0297844,-0.674561,1.15469,0.542307,1.88922,1.07309,16.7841,2.73543,13.8033
0.0838513,-0.633281,1.19697,0.554255,1.90433,1.09546,17.1587,2.7873,14.1311
0.137918,-0.592002,1.23924,0.566204,1.91945,1.11783,17.5334,2.83917,14.459
0.191985,-0.550722,1.28152,0.578153,1.93456,1.14021,17.908,2.89103,14.7868
0.246052,-0.509442,1.3238,0.590101,1.94967,1.16258,18.2826,2.9429,15.1146
0.300119,-0.468163,1.36608,0.60205,1.96478,1.18495,18.6572,2.99476,15.4424
0.354186,-0.426883,1.40836,0.613999,1.97989,1.20733,19.0318,3.04663,15.7702
0.408253,-0.385603,1.45064,0.625947,1.995,1.2297,19.4065,3.0985,16.098
0.46232,-0.344323,1.49292,0.637896,2.01011,1.25208,19.7811,3.15036,16.4258
0.516387,-0.303044,1.5352,0.649845,2.02523,1.27445,20.1557,3.20223,16.7537
0.570453,-0.261764,1.57748,0.661793,2.04034,1.29682,20.5303,3.2541,17.0815
0.62452,-0.220484,1.61976,0.673742,2.05545,1.3192,20.9049,3.30596,17.4093
0.678587,-0.179205,1.66204,0.685691,2.07056,1.34157,21.2796,3.35783,17.7371
0.732654,-0.137925,1.70431,0.697639,2.08567,1.36394,21.6542,3.4097,18.0649
0.786721,-0.0966452,1.74659,0.709588,2.10078,1.38632,22.0288,3.46156,18.3927
0.840788,-0.0553655,1.78887,0.721536,2.11589,1.40869,22.4034,3.51343,18.7205
0.894855,-0.0140858,1.83115,0.733485,2.131,1.43106,22.778,3.5653,19.0484
0.948922,0.0271939,1.87343,0.745434,2.14612,1.45344,23.1526,3.61716,19.3762
1.00299,0.0684736,1.91571,0.757382,2.16123,1.47581,23.5273,3.66903,19.704
1.05706,0.109753,1.95799,0.769331,2.17634,1.49818,23.9019,3.72089,20.0318
1.11112,0.151033,2.00027,0.78128,2.19145,1.52056,24.2765,3.77276,20.3596
1.16519,0.192313,2.04255,0.793228,2.20656,1.54293,24.6511,3.82463,20.6874
1.21926,0.233593,2.08483,0.805177,2.22167,1.5653,25.0257,3.87649,21.0152
1.27332,0.274872,2.12711,0.817126,2.23678,1.58768,25.4004,3.92836,21.3431
1.32739,0.316152,2.16938,0.829074,2.2519,1.61005,25.775,3.98023,21.6709
1.38146,0.357432,2.21166,0.841023,2.26701,1.63242,26.1496,4.03209,21.9987
1.43552,0.398711,2.25394,0.852972,2.28212,1.6548,26.5242,4.08396,22.3265
1.48959,0.439991,2.29622,0.86492,2.29723,1.67717,26.8988,4.13583,22.6543
1.54366,0.481271,2.3385,0.876869,2.31234,1.69954,27.2734,4.18769,22.9821
1.59772,0.522551,2.38078,0.888818,2.32745,1.72192,27.6481,4.23956,23.3099
1.65179,0.56383,2.42306,0.900766,2.34256,1.74429,28.0227,4.29143,23.6378
1.70586,0.60511,2.46534,0.912715,2.35768,1.76667,28.3973,4.34329,23.9656
1.75993,0.64639,2.50762,0.924663,2.37279,1.78904,28.7719,4.39516,24.2934
1.81399,0.687669,2.5499,0.936612,2.3879,1.81141,29.1465,4.44702,24.6212
1.86806,0.728949,2.59218,0.948561,2.40301,1.83379,29.5212,4.49889,24.949
1.92213,0.770229,2.63445,0.960509,2.41812,1.85616,29.8958,4.55076,25.2768
1.97619,0.811509,2.67673,0.972458,2.43323,1.87853,30.2704,4.60262,25.6046
2.03026,0.852788,2.71901,0.984407,2.44834,1.90091,30.645,4.65449,25.9325
2.08433,0.894068,2.76129,0.996355,2.46345,1.92328,31.0196,4.70636,26.2603
2.13839,0.935348,2.80357,1.0083,2.47857,1.94565,31.3943,4.75822,26.5881
2.19246,0.976627,2.84585,1.02025,2.49368,1.96803,31.7689,4.81009,26.9159
2.24653,1.01791,2.88813,1.0322,2.50879,1.9904,32.1435,4.86196,27.2437
2.30059,1.05919,2.93041,1.04415,2.5239,2.01277,32.5181,4.91382,27.5715
2.35466,1.10047,2.97269,1.0561,2.53901,2.03515,32.8927,4.96569,27.8993
2.40873,1.14175,3.01497,1.06805,2.55412,2.05752,33.2673,5.01756,28.2272
2.4628,1.18303,3.05725,1.08,2.56923,2.07989,33.642,5.06942,28.555
2.48983,1.20367,3.07838,1.08597,2.57679,2.09108,33.8293,5.09536,28.7189