File: KDE_Y.csv
A,B,X,Thickness,Bandgap,Voc,Jsc,FF,PCE
6.58812e-07,3.18119e-06,6.72105e-05,4.50772e-05,2.58944e-05,0.000128346,1.55458e-05,5.36702e-06,5.16342e-05
1.69022e-06,1.63879e-05,0.000799233,0.000134922,0.000130469,0.000586014,3.79132e-05,0.000344497,0.00011183
3.90329e-06,5.83295e-05,0.00358113,0.000369372,0.000510606,0.00211293,8.57188e-05,0.00267201,0.000228099
8.15759e-06,0.000143444,0.00604615,0.000930675,0.0015641,0.00602489,0.000179797,0.0071501,0.000438406
1.56057e-05,0.000243729,0.00384634,0.00216949,0.00380089,0.0136208,0.000350189,0.0271051,0.000794531
2.79488e-05,0.00028613,0.000921996,0.0046948,0.00750112,0.0245268,0.000634047,0.0657284,0.0013589
4.86823e-05,0.000232085,8.32762e-05,0.00944233,0.0125033,0.0354826,0.00106869,0.143855,0.00219557
8.65043e-05,0.000130066,2.83416e-06,0.0176379,0.0186547,0.0419341,0.00167984,0.24171,0.00335531
0.000161623,5.03627e-05,3.63454e-08,0.0305552,0.0265547,0.041806,0.00246803,0.354428,0.00485755
0.000313358,1.34736e-05,5.69862e-10,0.0490495,0.0373216,0.0372355,0.00339889,0.50154,0.00667482
0.000603102,2.49052e-06,5.87805e-08,0.0730477,0.0509873,0.0322018,0.00440341,0.71577,0.00872643
0.00110305,3.18074e-07,3.31361e-06,0.101364,0.0652907,0.0292442,0.00539066,1.03847,0.0108867
0.00186387,2.81407e-08,7.13476e-05,0.132153,0.0769768,0.0287139,0.00626992,1.52774,0.0130078
0.0028678,4.09442e-09,0.000609335,0.163924,0.0842863,0.0299941,0.00697384,2.29449,0.0149514
0.00399331,5.31067e-08,0.00231986,0.196587,0.0870546,0.0324927,0.00747361,3.27513,0.0166189
0.00502497,8.15412e-07,0.00484153,0.231882,0.0851091,0.035811,0.00778123,4.19504,0.017971
0.00572288,8.6621e-06,0.00583959,0.272897,0.0788082,0.039716,0.00794024,3.54571,0.0190292
0.00592337,6.3577e-05,0.00336073,0.322865,0.0706169,0.0442128,0.00801072,1.20234,0.019862
0.00561165,0.000322409,0.000789163,0.383847,0.063912,0.0494536,0.00805493,0.118671,0.0205606
0.00491974,0.00112965,7.13601e-05,0.455976,0.0602472,0.0553872,0.00812745,0.00825825,0.0212145
0.00405391,0.00273471,2.44801e-06,0.537768,0.0586088,0.0615786,0.00827011,0.00380294,0.0218935
0.00320354,0.00457414,1.30736e-06,0.627416,0.0575524,0.067575,0.0085101,0.00168537,0.0226406
0.00248832,0.00528613,0.000201978,0.724291,0.060007,0.0734291,0.00885945,0.000460217,0.0234744
0.00196893,0.00422081,0.0120491,0.829838,0.079406,0.0796864,0.00931434,0.000756026,0.0243985
0.00171579,0.00232854,0.270844,0.947805,0.141591,0.0868725,0.00985478,0.00200668,0.025411
0.00192878,0.000887568,2.29402,1.0842,0.273287,0.0951216,0.0104454,0.000751966,0.0265129
0.0031139,0.000233749,7.32144,1.24703,0.474896,0.104203,0.0110395,0.000592337,0.0277102
0.00630365,4.25333e-05,8.80535,1.44528,0.702122,0.113659,0.0115869,0.000228131,0.0290116
0.0132143,5.34734e-06,3.99212,1.68674,0.900762,0.12297,0.0120457,0.000112294,0.0304234
0.0260928,4.6449e-07,0.684811,1.97435,1.09998,0.132061,0.0123933,0.000308691,0.0319437
0.046961,2.7877e-08,0.0484591,2.30045,1.5058,0.141957,0.0126346,6.38123e-05,0.033559
0.0762188,1.15596e-09,0.0069737,2.64037,2.52224,0.154593,0.012802,9.22005e-07,0.0352448
0.111161,3.31223e-11,0.00457467,2.95118,4.5674,0.17161,0.0129485,1.6665e-06,0.0369702
0.14551,9.3169e-13,0.0015412,3.18243,7.52646,0.193589,0.0131356,0.000116404,0.0387048
0.170904,1.74595e-11,0.000513618,3.29799,10.2337,0.220928,0.0134203,0.00060266,0.040426
0.180145,9.24751e-10,0.00159636,3.29578,11.0138,0.255148,0.0138467,0.000232298,0.0421234
0.170545,3.95101e-08,0.00299224,3.2098,9.24171,0.298616,0.0144415,6.64662e-06,0.0438005
0.145277,1.2781e-06,0.00212601,3.09195,6.03879,0.353182,0.0152153,1.39823e-08,0.045472
0.111859,2.9875e-05,0.000569208,2.98663,3.11117,0.420132,0.0161671,2.13579e-12,0.047158
0.0787852,0.000492151,5.74233e-05,2.91292,1.31845,0.501837,0.0172899,2.34089e-17,0.0488782
0.0524301,0.00564895,2.18303e-06,2.86117,0.522903,0.602935,0.0185756,1.82359e-23,0.0506458
0.0357447,0.044956,6.27214e-08,2.80281,0.257841,0.729913,0.0200185,1.00292e-30,0.0524649
0.0288333,0.247557,1.73902e-06,2.70885,0.189891,0.889421,0.0216171,8.94407e-35,0.0543299
0.0304857,0.942485,3.62272e-05,2.56888,0.172898,1.08535,0.0233723,5.99893e-27,0.0562275
0.0397093,2.48001,0.000285122,2.39949,0.161463,1.31559,0.0252857,2.8069e-20,0.058139
0.0568206,4.51008,0.000867257,2.2359,0.147072,1.57125,0.0273557,9.1621e-15,0.0600425
0.0839682,5.66899,0.00123808,2.11217,0.130971,1.84013,0.0295764,2.08708e-10,0.0619138
0.124788,4.92663,0.00172945,2.04227,0.115128,2.11271,0.0319388,3.32728e-07,0.0637268
0.182671,2.96239,0.00318984,2.01194,0.100359,2.38601,0.0344363,3.79371e-05,0.0654536
0.257557,1.23486,0.00791806,1.98397,0.0873003,2.66034,0.0370724,0.000357823,0.0670659
0.342511,0.358881,0.0155153,1.9152,0.0780092,2.92832,0.0398692,0.000464483,0.0685372
0.42259,0.0742496,0.0130785,1.77826,0.0756925,3.16158,0.0428707,9.70859e-05,0.0698446
0.478235,0.0120661,0.00422468,1.5768,0.0823151,3.3059,0.0461414,1.88299e-06,0.07097
0.492751,0.00238195,0.000659458,1.34388,0.096222,3.29437,0.0497558,2.66761e-09,0.0718987
0.460124,0.00109723,0.000936793,1.124,0.111184,3.07864,0.0537844,2.65241e-13,0.0726179
0.388295,0.000906131,0.00287765,0.950803,0.118452,2.66224,0.05828,5.89352e-14,0.0731146
0.295654,0.000901117,0.00457022,0.833942,0.112508,2.11157,0.0632673,8.60618e-10,0.0733747
0.202976,0.00088329,0.0032393,0.760447,0.0955198,1.53212,0.0687381,8.80733e-07,0.0733848
0.125721,0.000785465,0.000927262,0.706216,0.0748412,1.02323,0.0746499,6.51035e-05,0.0731334
0.0705511,0.000624973,0.000109928,0.649704,0.0568337,0.640992,0.0809216,0.00042135,0.0726114
0.0366198,0.000433793,0.00010613,0.581059,0.0444218,0.390198,0.087426,0.000411865,0.0718107
0.0195525,0.00026076,0.000518541,0.503385,0.0389182,0.242248,0.0939763,5.99621e-05,0.0707198
0.0157293,0.000175428,0.00099464,0.427098,0.0416426,0.160075,0.100312,7.56687e-07,0.0693206
0.0257212,0.000227773,0.000718981,0.361881,0.0528633,0.114327,0.106084,6.88479e-10,0.0675858
0.0567743,0.000500388,0.000195831,0.311404,0.0689503,0.0873904,0.110857,4.38877e-14,0.0654807
0.12392,0.00143993,2.02398e-05,0.273104,0.0816151,0.0704898,0.114116,1.95268e-19,0.0629693
0.247913,0.00470675,6.35853e-06,0.241626,0.0826396,0.0595905,0.115319,6.06098e-26,0.0600223
0.447532,0.0142788,8.281e-05,0.212778,0.0705583,0.0526546,0.113976,1.31235e-33,0.056627
0.725996,0.0348262,0.00046283,0.185586,0.0516028,0.0483501,0.109752,1.98222e-42,0.0527947
1.05683,0.0633158,0.000974926,0.161888,0.034029,0.0455463,0.102585,2.08855e-52,0.048566
1.37967,0.0826427,0.000781219,0.144421,0.0226535,0.0431795,0.0927572,1.53508e-63,0.044012
1.61476,0.0760615,0.000460144,0.134833,0.0179999,0.040432,0.0809021,7.87066e-76,0.0392321
1.6941,0.0489824,0.00263504,0.132604,0.018241,0.0369818,0.0679152,2.81503e-89,0.0343477
1.59305,0.0220743,0.0112114,0.135011,0.02103,0.0329035,0.0547983,7.0234e-104,0.0294936
1.34264,0.00710826,0.01815,0.137908,0.0245812,0.0283271,0.0424767,1.22237e-119,0.0248061
1.01417,0.00186818,0.0110725,0.137101,0.0285398,0.0233565,0.0316493,1.48407e-136,0.0204121
0.68657,0.000653738,0.00254522,0.129981,0.0344851,0.0182568,0.0227092,1.25689e-154,0.016417
0.416575,0.000401521,0.000220481,0.116657,0.0452742,0.0134722,0.0157463,7.42558e-174,0.0128964
0.226561,0.000288088,8.9563e-06,0.099802,0.063251,0.00939302,0.0106124,3.06026e-194,0.00989096
0.110495,0.000242206,4.41698e-05,0.0831368,0.0876507,0.00619121,0.00701536,1.35993e-205,0.00740628
0.048401,0.000274059,0.00041568,0.0695189,0.111846,0.00385685,0.00461037,1.36659e-184,0.00541674
0.0191754,0.000364632,0.00147758,0.0597932,0.124369,0.00228655,0.00306717,9.57967e-165,0.00387301
0.00711181,0.000501628,0.00199524,0.0529284,0.117055,0.00132174,0.00210821,4.68442e-146,0.00271118
0.00290377,0.000672679,0.00118087,0.0470746,0.0933124,0.000773465,0.00152163,1.59792e-128,0.00186179
0.00198088,0.000813703,0.000935039,0.0407576,0.0655301,0.000465821,0.00115781,3.80229e-112,0.00125736
0.00245556,0.00080641,0.00162685,0.0335501,0.0442662,0.000277569,0.000918427,6.31145e-97,0.00083758
0.00364259,0.000617444,0.00360185,0.0260012,0.0318806,0.000151969,0.000743675,7.30811e-83,0.000552075
0.00523255,0.000393553,0.00719306,0.0190553,0.0250286,7.26029e-05,0.000600889,5.90302e-70,0.000361102
0.00692044,0.000321802,0.00844017,0.0134277,0.0200108,3.35838e-05,0.000475317,3.3261e-58,0.000234854
0.0083175,0.000604689,0.00495099,0.00930803,0.0154368,2.88061e-05,0.000362906,1.30734e-47,0.000151944
0.00903709,0.00222005,0.00126318,0.00645318,0.0117196,5.47315e-05,0.000264786,3.58456e-38,9.76244e-05
0.00885092,0.00868014,0.000146869,0.00446705,0.00942746,0.000107448,0.000183346,6.85607e-30,6.20498e-05
0.00779975,0.0260972,0.000240711,0.00302743,0.00825977,0.000170738,0.000119893,9.1476e-23,3.87953e-05
0.00617696,0.0554871,0.00113987,0.00195704,0.00723059,0.00021338,7.37756e-05,8.51396e-17,2.37023e-05
0.0043925,0.0819904,0.00237246,0.00118008,0.0056163,0.000209147,4.26059e-05,5.52775e-12,1.40546e-05
0.00280312,0.0838697,0.00383813,0.000653671,0.00358299,0.000160732,2.30441e-05,2.50356e-08,8.03705e-06
0.00160469,0.0593248,0.00670136,0.000329473,0.00180819,9.68499e-05,1.16535e-05,7.90971e-06,4.40781e-06
0.000823827,0.0290053,0.00616624,0.000150233,0.000709867,4.57549e-05,5.50238e-06,0.000174323,2.3078e-06
0.000379221,0.00980052,0.00223107,6.17378e-05,0.000215189,1.6948e-05,2.42283e-06,0.000268005,1.14925e-06
0.000156494,0.00228827,0.0003055,2.28027e-05,5.02033e-05,4.92202e-06,9.93846e-07,2.87424e-05,5.42758e-07
9.64922e-05,0.000962583,7.84136e-05,1.33051e-05,2.19697e-05,2.42121e-06,6.1965e-07,3.46785e-06,3.65386e-07